File: SEM/010422/CL15_D/reports/CL15_D Spectrum 2.txt
#FORMAT      : EMSA/MAS Spectral Data File
#VERSION     : 1.0
#TITLE       : Spectrum 2
#DATE        : 04-JAN-2022
#TIME        : 13:49
#OWNER       :
#NPOINTS     : 2048.0
#NCOLUMNS    : 1.0
#XUNITS      : keV
#YUNITS      : counts
#DATATYPE    : XY
#XPERCHAN    : 0.01
#OFFSET      : -0.2
#SIGNALTYPE  : EDS
#CHOFFSET    : 20.0
#LIVETIME    : 40.0
#REALTIME    : 42.5244
#BEAMKV      : 20.0
#MAGCAM      : 500.0
#XTILTSTGE   : 0.0
#AZIMANGLE   : 0.0
#ELEVANGLE   : 35.0
#XPOSITION mm: 9.8132
#YPOSITION mm: -6.3588
#ZPOSITION mm: 10.0000
##OXINSTPT   : 4
##OXINSTSTROB: 43.50
##OXINSTNDET : 1
##OXINSTELEMS: 6,26,25,8,14,16,23,24,29
##OXINSTLABEL: 6, 0.277, C
##OXINSTLABEL: 26, 6.404, Fe
##OXINSTLABEL: 26, 7.058, Fe
##OXINSTLABEL: 26, 0.703, Fe
##OXINSTLABEL: 26, 0.615, Fe
##OXINSTLABEL: 25, 5.899, Mn
##OXINSTLABEL: 25, 6.490, Mn
##OXINSTLABEL: 25, 0.636, Mn
##OXINSTLABEL: 25, 0.556, Mn
##OXINSTLABEL: 8, 0.525, O
##OXINSTLABEL: 14, 1.740, Si
##OXINSTLABEL: 16, 2.308, S
##OXINSTLABEL: 16, 2.464, S
##OXINSTLABEL: 23, 4.952, V
##OXINSTLABEL: 23, 5.427, V
##OXINSTLABEL: 23, 0.511, V
##OXINSTLABEL: 23, 0.446, V
##OXINSTLABEL: 24, 5.415, Cr
##OXINSTLABEL: 24, 5.947, Cr
##OXINSTLABEL: 24, 0.573, Cr
##OXINSTLABEL: 24, 0.500, Cr
##OXINSTLABEL: 29, 8.048, Cu
##OXINSTLABEL: 29, 8.905, Cu
##OXINSTLABEL: 29, 0.930, Cu
##OXINSTLABEL: 29, 0.832, Cu
##OXINSTLABEL: 29, 0.811, Cu
#SPECTRUM    : Spectral Data Starts Here
-0.20000, 0.0
-0.13000, 0.0
-0.06000, 0.0
0.01000, 1370.0
0.08000, 286.0
0.15000, 123.0
0.22000, 283.0
0.29000, 1157.0
0.36000, 235.0
0.43000, 333.0
0.50000, 946.0
0.57000, 1466.0
0.64000, 3649.0
0.71000, 10082.0
0.78000, 531.0
0.85000, 211.0
0.92000, 234.0
0.99000, 227.0
1.06000, 254.0
1.13000, 276.0
1.20000, 294.0
1.27000, 343.0
1.34000, 331.0
1.41000, 345.0
1.48000, 356.0
1.55000, 386.0
1.62000, 354.0
1.69000, 387.0
1.76000, 515.0
1.83000, 393.0
1.90000, 379.0
1.97000, 410.0
2.04000, 391.0
2.11000, 389.0
2.18000, 402.0
2.25000, 422.0
2.32000, 477.0
2.39000, 396.0
2.46000, 411.0
2.53000, 417.0
2.60000, 413.0
2.67000, 381.0
2.74000, 364.0
2.81000, 371.0
2.88000, 348.0
2.95000, 353.0
3.02000, 350.0
3.09000, 360.0
3.16000, 375.0
3.23000, 366.0
3.30000, 343.0
3.37000, 325.0
3.44000, 359.0
3.51000, 337.0
3.58000, 333.0
3.65000, 323.0
3.72000, 323.0
3.79000, 314.0
3.86000, 322.0
3.93000, 318.0
4.00000, 297.0
4.07000, 315.0
4.14000, 289.0
4.21000, 304.0
4.28000, 298.0
4.35000, 270.0
4.42000, 289.0
4.49000, 274.0
4.56000, 301.0
4.63000, 347.0
4.70000, 305.0
4.77000, 259.0
4.84000, 286.0
4.91000, 289.0
4.98000, 295.0
5.05000, 248.0
5.12000, 237.0
5.19000, 249.0
5.26000, 231.0
5.33000, 254.0
5.40000, 286.0
5.47000, 244.0
5.54000, 229.0
5.61000, 191.0
5.68000, 228.0
5.75000, 228.0
5.82000, 316.0
5.89000, 495.0
5.96000, 356.0
6.03000, 232.0
6.10000, 223.0
6.17000, 250.0
6.24000, 548.0
6.31000, 5022.0
6.38000, 16144.0
6.45000, 11859.0
6.52000, 2023.0
6.59000, 282.0
6.66000, 193.0
6.73000, 202.0
6.80000, 227.0
6.87000, 259.0
6.94000, 517.0
7.01000, 1860.0
7.08000, 2113.0
7.15000, 760.0
7.22000, 158.0
7.29000, 95.0
7.36000, 113.0
7.43000, 125.0
7.50000, 126.0
7.57000, 102.0
7.64000, 110.0
7.71000, 109.0
7.78000, 105.0
7.85000, 97.0
7.92000, 95.0
7.99000, 120.0
8.06000, 121.0
8.13000, 92.0
8.20000, 94.0
8.27000, 95.0
8.34000, 95.0
8.41000, 93.0
8.48000, 99.0
8.55000, 105.0
8.62000, 90.0
8.69000, 82.0
8.76000, 88.0
8.83000, 104.0
8.90000, 85.0
8.97000, 75.0
9.04000, 86.0
9.11000, 96.0
9.18000, 101.0
9.25000, 98.0
9.32000, 71.0
9.39000, 83.0
9.46000, 76.0
9.53000, 76.0
9.60000, 81.0
9.67000, 78.0
9.74000, 81.0
9.81000, 69.0
9.88000, 79.0
9.95000, 87.0
10.02000, 78.0
10.09000, 83.0
10.16000, 84.0
10.23000, 79.0
10.30000, 70.0
10.37000, 60.0
10.44000, 74.0
10.51000, 62.0
10.58000, 65.0
10.65000, 76.0
10.72000, 61.0
10.79000, 75.0
10.86000, 63.0
10.93000, 61.0
11.00000, 59.0
11.07000, 57.0
11.14000, 62.0
11.21000, 55.0
11.28000, 65.0
11.35000, 66.0
11.42000, 49.0
11.49000, 53.0
11.56000, 55.0
11.63000, 54.0
11.70000, 58.0
11.77000, 46.0
11.84000, 55.0
11.91000, 56.0
11.98000, 46.0
12.05000, 46.0
12.12000, 46.0
12.19000, 53.0
12.26000, 56.0
12.33000, 53.0
12.40000, 49.0
12.47000, 48.0
12.54000, 61.0
12.61000, 47.0
12.68000, 44.0
12.75000, 58.0
12.82000, 66.0
12.89000, 51.0
12.96000, 40.0
13.03000, 41.0
13.10000, 27.0
13.17000, 39.0
13.24000, 32.0
13.31000, 32.0
13.38000, 49.0
13.45000, 44.0
13.52000, 34.0
13.59000, 28.0
13.66000, 32.0
13.73000, 39.0
13.80000, 28.0
13.87000, 28.0
13.94000, 42.0
14.01000, 36.0
14.08000, 33.0
14.15000, 23.0
14.22000, 18.0
14.29000, 24.0
14.36000, 28.0
14.43000, 26.0
14.50000, 21.0
14.57000, 12.0
14.64000, 13.0
14.71000, 29.0
14.78000, 24.0
14.85000, 23.0
14.92000, 20.0
14.99000, 16.0
15.06000, 15.0
15.13000, 17.0
15.20000, 14.0
15.27000, 11.0
15.34000, 25.0
15.41000, 28.0
15.48000, 24.0
15.55000, 18.0
15.62000, 14.0
15.69000, 22.0
15.76000, 12.0
15.83000, 22.0
15.90000, 8.0
15.97000, 17.0
16.04000, 13.0
16.11000, 16.0
16.18000, 9.0
16.25000, 13.0
16.32000, 12.0
16.39000, 15.0
16.46000, 11.0
16.53000, 14.0
16.60000, 8.0
16.67000, 14.0
16.74000, 11.0
16.81000, 11.0
16.88000, 13.0
16.95000, 8.0
17.02000, 12.0
17.09000, 9.0
17.16000, 11.0
17.23000, 10.0
17.30000, 3.0
17.37000, 7.0
17.44000, 10.0
17.51000, 6.0
17.58000, 7.0
17.65000, 9.0
17.72000, 7.0
17.79000, 6.0
17.86000, 5.0
17.93000, 7.0
18.00000, 3.0
18.07000, 4.0
18.14000, 4.0
18.21000, 3.0
18.28000, 3.0
18.35000, 2.0
18.42000, 8.0
18.49000, 2.0
18.56000, 2.0
18.63000, 3.0
18.70000, 2.0
18.77000, 3.0
18.84000, 1.0
18.91000, 1.0
18.98000, 3.0
19.05000, 1.0
19.12000, 2.0
19.19000, 1.0
19.26000, 1.0
19.33000, 4.0
19.40000, 0.0
19.47000, 2.0
19.54000, 0.0
19.61000, 1.0
19.68000, 1.0
19.75000, 2.0
19.82000, 2.0
19.89000, 0.0
19.96000, 0.0
20.03000, 0.0
20.10000, 0.0
20.17000, 0.0
20.24000, 0.0
20.27000, 0.0
#ENDOFDATA   :