File: SEM/010422/CL15_D/reports/CL15_D Spectrum 3.txt
#FORMAT      : EMSA/MAS Spectral Data File
#VERSION     : 1.0
#TITLE       : Spectrum 3
#DATE        : 04-JAN-2022
#TIME        : 13:59
#OWNER       :
#NPOINTS     : 2048.0
#NCOLUMNS    : 1.0
#XUNITS      : keV
#YUNITS      : counts
#DATATYPE    : XY
#XPERCHAN    : 0.01
#OFFSET      : -0.2
#SIGNALTYPE  : EDS
#CHOFFSET    : 20.0
#LIVETIME    : 40.0
#REALTIME    : 41.5926
#BEAMKV      : 20.0
#MAGCAM      : 500.0
#XTILTSTGE   : 0.0
#AZIMANGLE   : 0.0
#ELEVANGLE   : 35.0
#XPOSITION mm: 6.2618
#YPOSITION mm: 3.3867
#ZPOSITION mm: 10.0000
##OXINSTPT   : 4
##OXINSTSTROB: 43.49
##OXINSTNDET : 1
##OXINSTELEMS: 6,26,25,8,16,24,14
##OXINSTLABEL: 6, 0.277, C
##OXINSTLABEL: 26, 6.404, Fe
##OXINSTLABEL: 26, 7.058, Fe
##OXINSTLABEL: 26, 0.703, Fe
##OXINSTLABEL: 26, 0.615, Fe
##OXINSTLABEL: 25, 5.899, Mn
##OXINSTLABEL: 25, 6.490, Mn
##OXINSTLABEL: 25, 0.636, Mn
##OXINSTLABEL: 25, 0.556, Mn
##OXINSTLABEL: 8, 0.525, O
##OXINSTLABEL: 16, 2.308, S
##OXINSTLABEL: 16, 2.464, S
##OXINSTLABEL: 24, 5.415, Cr
##OXINSTLABEL: 24, 5.947, Cr
##OXINSTLABEL: 24, 0.573, Cr
##OXINSTLABEL: 24, 0.500, Cr
##OXINSTLABEL: 14, 1.740, Si
#SPECTRUM    : Spectral Data Starts Here
-0.20000, 0.0
-0.13000, 0.0
-0.06000, 3.0
0.01000, 1433.0
0.08000, 261.0
0.15000, 72.0
0.22000, 178.0
0.29000, 777.0
0.36000, 116.0
0.43000, 160.0
0.50000, 473.0
0.57000, 698.0
0.64000, 1729.0
0.71000, 4877.0
0.78000, 229.0
0.85000, 99.0
0.92000, 121.0
0.99000, 124.0
1.06000, 133.0
1.13000, 145.0
1.20000, 165.0
1.27000, 162.0
1.34000, 149.0
1.41000, 148.0
1.48000, 173.0
1.55000, 175.0
1.62000, 177.0
1.69000, 200.0
1.76000, 231.0
1.83000, 184.0
1.90000, 188.0
1.97000, 178.0
2.04000, 177.0
2.11000, 205.0
2.18000, 187.0
2.25000, 178.0
2.32000, 256.0
2.39000, 211.0
2.46000, 215.0
2.53000, 175.0
2.60000, 185.0
2.67000, 196.0
2.74000, 189.0
2.81000, 166.0
2.88000, 183.0
2.95000, 173.0
3.02000, 187.0
3.09000, 173.0
3.16000, 155.0
3.23000, 176.0
3.30000, 182.0
3.37000, 178.0
3.44000, 172.0
3.51000, 177.0
3.58000, 151.0
3.65000, 146.0
3.72000, 175.0
3.79000, 158.0
3.86000, 170.0
3.93000, 159.0
4.00000, 161.0
4.07000, 150.0
4.14000, 153.0
4.21000, 157.0
4.28000, 147.0
4.35000, 155.0
4.42000, 146.0
4.49000, 144.0
4.56000, 147.0
4.63000, 171.0
4.70000, 171.0
4.77000, 139.0
4.84000, 143.0
4.91000, 155.0
4.98000, 163.0
5.05000, 147.0
5.12000, 127.0
5.19000, 122.0
5.26000, 133.0
5.33000, 130.0
5.40000, 170.0
5.47000, 149.0
5.54000, 137.0
5.61000, 119.0
5.68000, 139.0
5.75000, 112.0
5.82000, 170.0
5.89000, 283.0
5.96000, 229.0
6.03000, 127.0
6.10000, 127.0
6.17000, 134.0
6.24000, 347.0
6.31000, 3069.0
6.38000, 9831.0
6.45000, 7050.0
6.52000, 1145.0
6.59000, 141.0
6.66000, 121.0
6.73000, 117.0
6.80000, 108.0
6.87000, 135.0
6.94000, 370.0
7.01000, 1163.0
7.08000, 1331.0
7.15000, 416.0
7.22000, 89.0
7.29000, 61.0
7.36000, 53.0
7.43000, 63.0
7.50000, 48.0
7.57000, 59.0
7.64000, 50.0
7.71000, 45.0
7.78000, 47.0
7.85000, 46.0
7.92000, 54.0
7.99000, 58.0
8.06000, 58.0
8.13000, 72.0
8.20000, 43.0
8.27000, 51.0
8.34000, 45.0
8.41000, 54.0
8.48000, 46.0
8.55000, 40.0
8.62000, 46.0
8.69000, 36.0
8.76000, 55.0
8.83000, 51.0
8.90000, 56.0
8.97000, 40.0
9.04000, 52.0
9.11000, 54.0
9.18000, 50.0
9.25000, 47.0
9.32000, 48.0
9.39000, 36.0
9.46000, 40.0
9.53000, 44.0
9.60000, 43.0
9.67000, 43.0
9.74000, 39.0
9.81000, 31.0
9.88000, 40.0
9.95000, 33.0
10.02000, 35.0
10.09000, 36.0
10.16000, 35.0
10.23000, 35.0
10.30000, 45.0
10.37000, 43.0
10.44000, 45.0
10.51000, 31.0
10.58000, 34.0
10.65000, 36.0
10.72000, 31.0
10.79000, 32.0
10.86000, 37.0
10.93000, 35.0
11.00000, 28.0
11.07000, 33.0
11.14000, 39.0
11.21000, 30.0
11.28000, 27.0
11.35000, 38.0
11.42000, 28.0
11.49000, 30.0
11.56000, 34.0
11.63000, 31.0
11.70000, 28.0
11.77000, 33.0
11.84000, 29.0
11.91000, 25.0
11.98000, 27.0
12.05000, 20.0
12.12000, 36.0
12.19000, 33.0
12.26000, 19.0
12.33000, 33.0
12.40000, 24.0
12.47000, 20.0
12.54000, 25.0
12.61000, 25.0
12.68000, 25.0
12.75000, 38.0
12.82000, 25.0
12.89000, 29.0
12.96000, 25.0
13.03000, 25.0
13.10000, 25.0
13.17000, 22.0
13.24000, 21.0
13.31000, 25.0
13.38000, 18.0
13.45000, 22.0
13.52000, 27.0
13.59000, 16.0
13.66000, 18.0
13.73000, 25.0
13.80000, 18.0
13.87000, 14.0
13.94000, 27.0
14.01000, 21.0
14.08000, 15.0
14.15000, 17.0
14.22000, 10.0
14.29000, 12.0
14.36000, 14.0
14.43000, 12.0
14.50000, 12.0
14.57000, 17.0
14.64000, 13.0
14.71000, 17.0
14.78000, 10.0
14.85000, 13.0
14.92000, 15.0
14.99000, 15.0
15.06000, 13.0
15.13000, 13.0
15.20000, 15.0
15.27000, 8.0
15.34000, 19.0
15.41000, 5.0
15.48000, 6.0
15.55000, 8.0
15.62000, 7.0
15.69000, 11.0
15.76000, 10.0
15.83000, 6.0
15.90000, 7.0
15.97000, 9.0
16.04000, 8.0
16.11000, 5.0
16.18000, 11.0
16.25000, 5.0
16.32000, 9.0
16.39000, 4.0
16.46000, 8.0
16.53000, 9.0
16.60000, 5.0
16.67000, 10.0
16.74000, 11.0
16.81000, 9.0
16.88000, 5.0
16.95000, 3.0
17.02000, 4.0
17.09000, 5.0
17.16000, 2.0
17.23000, 7.0
17.30000, 4.0
17.37000, 4.0
17.44000, 14.0
17.51000, 2.0
17.58000, 3.0
17.65000, 2.0
17.72000, 5.0
17.79000, 4.0
17.86000, 7.0
17.93000, 5.0
18.00000, 0.0
18.07000, 0.0
18.14000, 2.0
18.21000, 3.0
18.28000, 5.0
18.35000, 4.0
18.42000, 4.0
18.49000, 2.0
18.56000, 4.0
18.63000, 1.0
18.70000, 0.0
18.77000, 2.0
18.84000, 2.0
18.91000, 2.0
18.98000, 1.0
19.05000, 1.0
19.12000, 1.0
19.19000, 1.0
19.26000, 1.0
19.33000, 0.0
19.40000, 1.0
19.47000, 1.0
19.54000, 0.0
19.61000, 0.0
19.68000, 0.0
19.75000, 0.0
19.82000, 0.0
19.89000, 1.0
19.96000, 0.0
20.03000, 0.0
20.10000, 0.0
20.17000, 0.0
20.24000, 0.0
20.27000, 0.0
#ENDOFDATA   :