File: SEM/010422/CL15_D/reports/CL15_D Spectrum 1.txt
#FORMAT      : EMSA/MAS Spectral Data File
#VERSION     : 1.0
#TITLE       : Spectrum 1
#DATE        : 04-JAN-2022
#TIME        : 13:43
#OWNER       :
#NPOINTS     : 2048.0
#NCOLUMNS    : 1.0
#XUNITS      : keV
#YUNITS      : counts
#DATATYPE    : XY
#XPERCHAN    : 0.01
#OFFSET      : -0.2
#SIGNALTYPE  : EDS
#CHOFFSET    : 20.0
#LIVETIME    : 40.0
#REALTIME    : 42.7987
#BEAMKV      : 20.0
#MAGCAM      : 500.0
#XTILTSTGE   : 0.0
#AZIMANGLE   : 0.0
#ELEVANGLE   : 35.0
#XPOSITION mm: 7.7026
#YPOSITION mm: -0.2656
#ZPOSITION mm: 10.0000
##OXINSTPT   : 4
##OXINSTSTROB: 43.51
##OXINSTNDET : 1
##OXINSTELEMS: 6,26,8,25,14,24,16,23
##OXINSTLABEL: 6, 0.277, C
##OXINSTLABEL: 26, 6.404, Fe
##OXINSTLABEL: 26, 7.058, Fe
##OXINSTLABEL: 26, 0.703, Fe
##OXINSTLABEL: 26, 0.615, Fe
##OXINSTLABEL: 8, 0.525, O
##OXINSTLABEL: 25, 5.899, Mn
##OXINSTLABEL: 25, 6.490, Mn
##OXINSTLABEL: 25, 0.636, Mn
##OXINSTLABEL: 25, 0.556, Mn
##OXINSTLABEL: 14, 1.740, Si
##OXINSTLABEL: 24, 5.415, Cr
##OXINSTLABEL: 24, 5.947, Cr
##OXINSTLABEL: 24, 0.573, Cr
##OXINSTLABEL: 24, 0.500, Cr
##OXINSTLABEL: 16, 2.308, S
##OXINSTLABEL: 16, 2.464, S
##OXINSTLABEL: 23, 4.952, V
##OXINSTLABEL: 23, 5.427, V
##OXINSTLABEL: 23, 0.511, V
##OXINSTLABEL: 23, 0.446, V
#SPECTRUM    : Spectral Data Starts Here
-0.20000, 0.0
-0.13000, 0.0
-0.06000, 1.0
0.01000, 1395.0
0.08000, 313.0
0.15000, 154.0
0.22000, 347.0
0.29000, 1620.0
0.36000, 292.0
0.43000, 422.0
0.50000, 1271.0
0.57000, 1685.0
0.64000, 4071.0
0.71000, 11970.0
0.78000, 616.0
0.85000, 235.0
0.92000, 295.0
0.99000, 282.0
1.06000, 293.0
1.13000, 322.0
1.20000, 362.0
1.27000, 397.0
1.34000, 388.0
1.41000, 405.0
1.48000, 401.0
1.55000, 419.0
1.62000, 457.0
1.69000, 473.0
1.76000, 582.0
1.83000, 457.0
1.90000, 432.0
1.97000, 469.0
2.04000, 457.0
2.11000, 442.0
2.18000, 451.0
2.25000, 486.0
2.32000, 519.0
2.39000, 474.0
2.46000, 434.0
2.53000, 446.0
2.60000, 442.0
2.67000, 476.0
2.74000, 446.0
2.81000, 401.0
2.88000, 376.0
2.95000, 407.0
3.02000, 421.0
3.09000, 434.0
3.16000, 412.0
3.23000, 387.0
3.30000, 373.0
3.37000, 389.0
3.44000, 378.0
3.51000, 361.0
3.58000, 375.0
3.65000, 354.0
3.72000, 332.0
3.79000, 358.0
3.86000, 340.0
3.93000, 340.0
4.00000, 328.0
4.07000, 355.0
4.14000, 343.0
4.21000, 299.0
4.28000, 356.0
4.35000, 281.0
4.42000, 292.0
4.49000, 293.0
4.56000, 303.0
4.63000, 340.0
4.70000, 307.0
4.77000, 274.0
4.84000, 296.0
4.91000, 325.0
4.98000, 289.0
5.05000, 284.0
5.12000, 261.0
5.19000, 258.0
5.26000, 264.0
5.33000, 312.0
5.40000, 328.0
5.47000, 297.0
5.54000, 247.0
5.61000, 230.0
5.68000, 244.0
5.75000, 213.0
5.82000, 341.0
5.89000, 540.0
5.96000, 378.0
6.03000, 250.0
6.10000, 213.0
6.17000, 260.0
6.24000, 631.0
6.31000, 5288.0
6.38000, 17477.0
6.45000, 12581.0
6.52000, 2074.0
6.59000, 290.0
6.66000, 237.0
6.73000, 232.0
6.80000, 223.0
6.87000, 269.0
6.94000, 604.0
7.01000, 1992.0
7.08000, 2250.0
7.15000, 782.0
7.22000, 206.0
7.29000, 124.0
7.36000, 132.0
7.43000, 129.0
7.50000, 116.0
7.57000, 103.0
7.64000, 122.0
7.71000, 107.0
7.78000, 106.0
7.85000, 113.0
7.92000, 104.0
7.99000, 135.0
8.06000, 138.0
8.13000, 106.0
8.20000, 95.0
8.27000, 119.0
8.34000, 113.0
8.41000, 98.0
8.48000, 103.0
8.55000, 111.0
8.62000, 98.0
8.69000, 98.0
8.76000, 87.0
8.83000, 94.0
8.90000, 100.0
8.97000, 96.0
9.04000, 94.0
9.11000, 111.0
9.18000, 91.0
9.25000, 92.0
9.32000, 96.0
9.39000, 91.0
9.46000, 89.0
9.53000, 109.0
9.60000, 94.0
9.67000, 86.0
9.74000, 97.0
9.81000, 84.0
9.88000, 75.0
9.95000, 79.0
10.02000, 90.0
10.09000, 78.0
10.16000, 79.0
10.23000, 90.0
10.30000, 78.0
10.37000, 85.0
10.44000, 67.0
10.51000, 72.0
10.58000, 73.0
10.65000, 88.0
10.72000, 69.0
10.79000, 73.0
10.86000, 56.0
10.93000, 62.0
11.00000, 73.0
11.07000, 75.0
11.14000, 71.0
11.21000, 66.0
11.28000, 46.0
11.35000, 73.0
11.42000, 69.0
11.49000, 59.0
11.56000, 58.0
11.63000, 64.0
11.70000, 47.0
11.77000, 48.0
11.84000, 50.0
11.91000, 42.0
11.98000, 67.0
12.05000, 48.0
12.12000, 59.0
12.19000, 48.0
12.26000, 58.0
12.33000, 56.0
12.40000, 51.0
12.47000, 37.0
12.54000, 51.0
12.61000, 48.0
12.68000, 53.0
12.75000, 70.0
12.82000, 59.0
12.89000, 50.0
12.96000, 47.0
13.03000, 40.0
13.10000, 34.0
13.17000, 51.0
13.24000, 40.0
13.31000, 32.0
13.38000, 48.0
13.45000, 47.0
13.52000, 51.0
13.59000, 36.0
13.66000, 33.0
13.73000, 39.0
13.80000, 32.0
13.87000, 33.0
13.94000, 32.0
14.01000, 28.0
14.08000, 29.0
14.15000, 25.0
14.22000, 27.0
14.29000, 37.0
14.36000, 29.0
14.43000, 24.0
14.50000, 25.0
14.57000, 33.0
14.64000, 20.0
14.71000, 23.0
14.78000, 23.0
14.85000, 22.0
14.92000, 16.0
14.99000, 20.0
15.06000, 29.0
15.13000, 25.0
15.20000, 21.0
15.27000, 22.0
15.34000, 13.0
15.41000, 18.0
15.48000, 15.0
15.55000, 16.0
15.62000, 17.0
15.69000, 19.0
15.76000, 21.0
15.83000, 16.0
15.90000, 10.0
15.97000, 15.0
16.04000, 13.0
16.11000, 12.0
16.18000, 12.0
16.25000, 7.0
16.32000, 16.0
16.39000, 10.0
16.46000, 13.0
16.53000, 11.0
16.60000, 12.0
16.67000, 16.0
16.74000, 7.0
16.81000, 9.0
16.88000, 4.0
16.95000, 9.0
17.02000, 10.0
17.09000, 14.0
17.16000, 13.0
17.23000, 7.0
17.30000, 11.0
17.37000, 7.0
17.44000, 9.0
17.51000, 8.0
17.58000, 7.0
17.65000, 3.0
17.72000, 5.0
17.79000, 6.0
17.86000, 6.0
17.93000, 8.0
18.00000, 6.0
18.07000, 3.0
18.14000, 3.0
18.21000, 7.0
18.28000, 3.0
18.35000, 3.0
18.42000, 4.0
18.49000, 5.0
18.56000, 2.0
18.63000, 4.0
18.70000, 7.0
18.77000, 2.0
18.84000, 2.0
18.91000, 5.0
18.98000, 2.0
19.05000, 0.0
19.12000, 3.0
19.19000, 4.0
19.26000, 0.0
19.33000, 3.0
19.40000, 0.0
19.47000, 2.0
19.54000, 1.0
19.61000, 0.0
19.68000, 0.0
19.75000, 1.0
19.82000, 1.0
19.89000, 0.0
19.96000, 0.0
20.03000, 1.0
20.10000, 1.0
20.17000, 0.0
20.24000, 1.0
20.27000, 0.0
#ENDOFDATA   :