File: SEM/CL10_B Spectrum 1.txt
#FORMAT      : EMSA/MAS Spectral Data File
#VERSION     : 1.0
#TITLE       : Spectrum 2
#DATE        : 20-DEC-2021
#TIME        : 12:04
#OWNER       :
#NPOINTS     : 2048.0
#NCOLUMNS    : 1.0
#XUNITS      : keV
#YUNITS      : counts
#DATATYPE    : XY
#XPERCHAN    : 0.01
#OFFSET      : -0.2
#SIGNALTYPE  : EDS
#CHOFFSET    : 20.0
#LIVETIME    : 40.0
#REALTIME    : 43.813
#BEAMKV      : 20.0
#MAGCAM      : 500.0
#XTILTSTGE   : 0.0
#AZIMANGLE   : 0.0
#ELEVANGLE   : 35.0
#XPOSITION mm: -5.3894
#YPOSITION mm: -5.0175
#ZPOSITION mm: 8.2000
##OXINSTPT   : 4
##OXINSTSTROB: 43.61
##OXINSTNDET : 1
##OXINSTELEMS: 6,25,26,14,16,23,24
##OXINSTLABEL: 6, 0.277, C
##OXINSTLABEL: 25, 5.899, Mn
##OXINSTLABEL: 25, 6.490, Mn
##OXINSTLABEL: 25, 0.636, Mn
##OXINSTLABEL: 25, 0.556, Mn
##OXINSTLABEL: 26, 6.404, Fe
##OXINSTLABEL: 26, 7.058, Fe
##OXINSTLABEL: 26, 0.703, Fe
##OXINSTLABEL: 26, 0.615, Fe
##OXINSTLABEL: 14, 1.740, Si
##OXINSTLABEL: 16, 2.308, S
##OXINSTLABEL: 16, 2.464, S
##OXINSTLABEL: 23, 4.952, V
##OXINSTLABEL: 23, 5.427, V
##OXINSTLABEL: 23, 0.511, V
##OXINSTLABEL: 23, 0.446, V
##OXINSTLABEL: 24, 5.415, Cr
##OXINSTLABEL: 24, 5.947, Cr
##OXINSTLABEL: 24, 0.573, Cr
##OXINSTLABEL: 24, 0.500, Cr
#SPECTRUM    : Spectral Data Starts Here
-0.20000, 0.0
-0.13000, 0.0
-0.06000, 1.0
0.01000, 1324.0
0.08000, 358.0
0.15000, 201.0
0.22000, 399.0
0.29000, 1258.0
0.36000, 327.0
0.43000, 490.0
0.50000, 1201.0
0.57000, 2188.0
0.64000, 5610.0
0.71000, 15781.0
0.78000, 813.0
0.85000, 325.0
0.92000, 330.0
0.99000, 339.0
1.06000, 396.0
1.13000, 435.0
1.20000, 408.0
1.27000, 500.0
1.34000, 502.0
1.41000, 487.0
1.48000, 561.0
1.55000, 521.0
1.62000, 531.0
1.69000, 630.0
1.76000, 762.0
1.83000, 553.0
1.90000, 564.0
1.97000, 603.0
2.04000, 606.0
2.11000, 590.0
2.18000, 595.0
2.25000, 633.0
2.32000, 753.0
2.39000, 629.0
2.46000, 617.0
2.53000, 584.0
2.60000, 566.0
2.67000, 613.0
2.74000, 561.0
2.81000, 564.0
2.88000, 574.0
2.95000, 565.0
3.02000, 551.0
3.09000, 529.0
3.16000, 518.0
3.23000, 489.0
3.30000, 525.0
3.37000, 500.0
3.44000, 500.0
3.51000, 472.0
3.58000, 479.0
3.65000, 517.0
3.72000, 517.0
3.79000, 484.0
3.86000, 448.0
3.93000, 494.0
4.00000, 460.0
4.07000, 435.0
4.14000, 428.0
4.21000, 465.0
4.28000, 407.0
4.35000, 427.0
4.42000, 416.0
4.49000, 392.0
4.56000, 409.0
4.63000, 463.0
4.70000, 461.0
4.77000, 402.0
4.84000, 364.0
4.91000, 422.0
4.98000, 418.0
5.05000, 385.0
5.12000, 367.0
5.19000, 354.0
5.26000, 363.0
5.33000, 390.0
5.40000, 452.0
5.47000, 388.0
5.54000, 321.0
5.61000, 319.0
5.68000, 339.0
5.75000, 330.0
5.82000, 490.0
5.89000, 764.0
5.96000, 590.0
6.03000, 328.0
6.10000, 344.0
6.17000, 383.0
6.24000, 824.0
6.31000, 7394.0
6.38000, 24225.0
6.45000, 17262.0
6.52000, 3024.0
6.59000, 393.0
6.66000, 310.0
6.73000, 278.0
6.80000, 278.0
6.87000, 353.0
6.94000, 841.0
7.01000, 2669.0
7.08000, 3227.0
7.15000, 1158.0
7.22000, 255.0
7.29000, 174.0
7.36000, 174.0
7.43000, 160.0
7.50000, 169.0
7.57000, 131.0
7.64000, 142.0
7.71000, 142.0
7.78000, 148.0
7.85000, 148.0
7.92000, 164.0
7.99000, 177.0
8.06000, 151.0
8.13000, 156.0
8.20000, 136.0
8.27000, 143.0
8.34000, 135.0
8.41000, 148.0
8.48000, 141.0
8.55000, 143.0
8.62000, 128.0
8.69000, 139.0
8.76000, 146.0
8.83000, 142.0
8.90000, 146.0
8.97000, 148.0
9.04000, 120.0
9.11000, 141.0
9.18000, 117.0
9.25000, 132.0
9.32000, 131.0
9.39000, 102.0
9.46000, 131.0
9.53000, 131.0
9.60000, 109.0
9.67000, 141.0
9.74000, 117.0
9.81000, 98.0
9.88000, 120.0
9.95000, 107.0
10.02000, 115.0
10.09000, 118.0
10.16000, 121.0
10.23000, 110.0
10.30000, 113.0
10.37000, 114.0
10.44000, 96.0
10.51000, 106.0
10.58000, 100.0
10.65000, 102.0
10.72000, 109.0
10.79000, 93.0
10.86000, 106.0
10.93000, 106.0
11.00000, 97.0
11.07000, 95.0
11.14000, 91.0
11.21000, 86.0
11.28000, 83.0
11.35000, 85.0
11.42000, 88.0
11.49000, 98.0
11.56000, 82.0
11.63000, 65.0
11.70000, 85.0
11.77000, 93.0
11.84000, 70.0
11.91000, 68.0
11.98000, 87.0
12.05000, 76.0
12.12000, 62.0
12.19000, 75.0
12.26000, 71.0
12.33000, 69.0
12.40000, 67.0
12.47000, 66.0
12.54000, 64.0
12.61000, 63.0
12.68000, 96.0
12.75000, 106.0
12.82000, 121.0
12.89000, 103.0
12.96000, 54.0
13.03000, 48.0
13.10000, 63.0
13.17000, 68.0
13.24000, 58.0
13.31000, 52.0
13.38000, 60.0
13.45000, 66.0
13.52000, 65.0
13.59000, 44.0
13.66000, 54.0
13.73000, 42.0
13.80000, 35.0
13.87000, 45.0
13.94000, 49.0
14.01000, 37.0
14.08000, 40.0
14.15000, 41.0
14.22000, 41.0
14.29000, 32.0
14.36000, 36.0
14.43000, 34.0
14.50000, 36.0
14.57000, 32.0
14.64000, 31.0
14.71000, 37.0
14.78000, 31.0
14.85000, 32.0
14.92000, 26.0
14.99000, 28.0
15.06000, 27.0
15.13000, 16.0
15.20000, 26.0
15.27000, 23.0
15.34000, 18.0
15.41000, 24.0
15.48000, 27.0
15.55000, 24.0
15.62000, 21.0
15.69000, 22.0
15.76000, 24.0
15.83000, 27.0
15.90000, 27.0
15.97000, 20.0
16.04000, 21.0
16.11000, 22.0
16.18000, 19.0
16.25000, 22.0
16.32000, 21.0
16.39000, 15.0
16.46000, 22.0
16.53000, 20.0
16.60000, 20.0
16.67000, 11.0
16.74000, 11.0
16.81000, 15.0
16.88000, 17.0
16.95000, 16.0
17.02000, 15.0
17.09000, 11.0
17.16000, 23.0
17.23000, 13.0
17.30000, 20.0
17.37000, 11.0
17.44000, 6.0
17.51000, 20.0
17.58000, 9.0
17.65000, 10.0
17.72000, 14.0
17.79000, 14.0
17.86000, 8.0
17.93000, 13.0
18.00000, 6.0
18.07000, 10.0
18.14000, 10.0
18.21000, 4.0
18.28000, 1.0
18.35000, 6.0
18.42000, 6.0
18.49000, 9.0
18.56000, 7.0
18.63000, 4.0
18.70000, 3.0
18.77000, 4.0
18.84000, 2.0
18.91000, 3.0
18.98000, 7.0
19.05000, 4.0
19.12000, 5.0
19.19000, 4.0
19.26000, 7.0
19.33000, 1.0
19.40000, 3.0
19.47000, 0.0
19.54000, 1.0
19.61000, 2.0
19.68000, 0.0
19.75000, 4.0
19.82000, 0.0
19.89000, 1.0
19.96000, 1.0
20.03000, 0.0
20.10000, 0.0
20.17000, 1.0
20.24000, 0.0
20.27000, 0.0
#ENDOFDATA   :