File: SEM/CL10_D 200 Spectrum 4.txt
#FORMAT      : EMSA/MAS Spectral Data File
#VERSION     : 1.0
#TITLE       : Spectrum 4
#DATE        : 20-DEC-2021
#TIME        : 13:40
#OWNER       :
#NPOINTS     : 2048.0
#NCOLUMNS    : 1.0
#XUNITS      : keV
#YUNITS      : counts
#DATATYPE    : XY
#XPERCHAN    : 0.01
#OFFSET      : -0.2
#SIGNALTYPE  : EDS
#CHOFFSET    : 20.0
#LIVETIME    : 40.0
#REALTIME    : 43.3191
#BEAMKV      : 20.0
#MAGCAM      : 500.0
#XTILTSTGE   : 0.0
#AZIMANGLE   : 0.0
#ELEVANGLE   : 35.0
#XPOSITION mm: -7.3128
#YPOSITION mm: 12.7039
#ZPOSITION mm: 10.0000
##OXINSTPT   : 4
##OXINSTSTROB: 43.60
##OXINSTNDET : 1
##OXINSTELEMS: 6,25,26,8,14,24,29,23,16
##OXINSTLABEL: 6, 0.277, C
##OXINSTLABEL: 25, 5.899, Mn
##OXINSTLABEL: 25, 6.490, Mn
##OXINSTLABEL: 25, 0.636, Mn
##OXINSTLABEL: 25, 0.556, Mn
##OXINSTLABEL: 26, 6.404, Fe
##OXINSTLABEL: 26, 7.058, Fe
##OXINSTLABEL: 26, 0.703, Fe
##OXINSTLABEL: 26, 0.615, Fe
##OXINSTLABEL: 8, 0.525, O
##OXINSTLABEL: 14, 1.740, Si
##OXINSTLABEL: 24, 5.415, Cr
##OXINSTLABEL: 24, 5.947, Cr
##OXINSTLABEL: 24, 0.573, Cr
##OXINSTLABEL: 24, 0.500, Cr
##OXINSTLABEL: 29, 8.048, Cu
##OXINSTLABEL: 29, 8.905, Cu
##OXINSTLABEL: 29, 0.930, Cu
##OXINSTLABEL: 29, 0.832, Cu
##OXINSTLABEL: 29, 0.811, Cu
##OXINSTLABEL: 23, 4.952, V
##OXINSTLABEL: 23, 5.427, V
##OXINSTLABEL: 23, 0.511, V
##OXINSTLABEL: 23, 0.446, V
##OXINSTLABEL: 16, 2.308, S
##OXINSTLABEL: 16, 2.464, S
#SPECTRUM    : Spectral Data Starts Here
-0.20000, 0.0
-0.13000, 0.0
-0.06000, 0.0
0.01000, 1387.0
0.08000, 334.0
0.15000, 189.0
0.22000, 433.0
0.29000, 2031.0
0.36000, 310.0
0.43000, 442.0
0.50000, 1253.0
0.57000, 1877.0
0.64000, 4547.0
0.71000, 13085.0
0.78000, 702.0
0.85000, 282.0
0.92000, 294.0
0.99000, 314.0
1.06000, 358.0
1.13000, 372.0
1.20000, 383.0
1.27000, 440.0
1.34000, 454.0
1.41000, 436.0
1.48000, 450.0
1.55000, 499.0
1.62000, 481.0
1.69000, 557.0
1.76000, 661.0
1.83000, 546.0
1.90000, 514.0
1.97000, 480.0
2.04000, 544.0
2.11000, 496.0
2.18000, 562.0
2.25000, 600.0
2.32000, 620.0
2.39000, 550.0
2.46000, 535.0
2.53000, 541.0
2.60000, 507.0
2.67000, 503.0
2.74000, 505.0
2.81000, 494.0
2.88000, 500.0
2.95000, 513.0
3.02000, 500.0
3.09000, 492.0
3.16000, 461.0
3.23000, 462.0
3.30000, 471.0
3.37000, 480.0
3.44000, 425.0
3.51000, 450.0
3.58000, 439.0
3.65000, 443.0
3.72000, 454.0
3.79000, 467.0
3.86000, 414.0
3.93000, 404.0
4.00000, 391.0
4.07000, 371.0
4.14000, 379.0
4.21000, 374.0
4.28000, 368.0
4.35000, 393.0
4.42000, 359.0
4.49000, 392.0
4.56000, 350.0
4.63000, 444.0
4.70000, 404.0
4.77000, 402.0
4.84000, 357.0
4.91000, 388.0
4.98000, 383.0
5.05000, 348.0
5.12000, 352.0
5.19000, 297.0
5.26000, 316.0
5.33000, 360.0
5.40000, 408.0
5.47000, 356.0
5.54000, 314.0
5.61000, 324.0
5.68000, 278.0
5.75000, 276.0
5.82000, 415.0
5.89000, 666.0
5.96000, 484.0
6.03000, 310.0
6.10000, 278.0
6.17000, 313.0
6.24000, 735.0
6.31000, 6562.0
6.38000, 21287.0
6.45000, 15347.0
6.52000, 2604.0
6.59000, 348.0
6.66000, 271.0
6.73000, 270.0
6.80000, 249.0
6.87000, 329.0
6.94000, 721.0
7.01000, 2404.0
7.08000, 2906.0
7.15000, 986.0
7.22000, 219.0
7.29000, 136.0
7.36000, 134.0
7.43000, 146.0
7.50000, 163.0
7.57000, 152.0
7.64000, 138.0
7.71000, 134.0
7.78000, 143.0
7.85000, 129.0
7.92000, 152.0
7.99000, 175.0
8.06000, 176.0
8.13000, 148.0
8.20000, 130.0
8.27000, 110.0
8.34000, 127.0
8.41000, 120.0
8.48000, 121.0
8.55000, 139.0
8.62000, 143.0
8.69000, 144.0
8.76000, 138.0
8.83000, 114.0
8.90000, 118.0
8.97000, 114.0
9.04000, 111.0
9.11000, 122.0
9.18000, 118.0
9.25000, 126.0
9.32000, 136.0
9.39000, 112.0
9.46000, 117.0
9.53000, 106.0
9.60000, 96.0
9.67000, 105.0
9.74000, 98.0
9.81000, 122.0
9.88000, 101.0
9.95000, 107.0
10.02000, 92.0
10.09000, 93.0
10.16000, 91.0
10.23000, 99.0
10.30000, 107.0
10.37000, 86.0
10.44000, 98.0
10.51000, 87.0
10.58000, 90.0
10.65000, 85.0
10.72000, 97.0
10.79000, 82.0
10.86000, 84.0
10.93000, 89.0
11.00000, 63.0
11.07000, 96.0
11.14000, 84.0
11.21000, 85.0
11.28000, 80.0
11.35000, 71.0
11.42000, 82.0
11.49000, 66.0
11.56000, 63.0
11.63000, 79.0
11.70000, 87.0
11.77000, 85.0
11.84000, 64.0
11.91000, 71.0
11.98000, 63.0
12.05000, 67.0
12.12000, 76.0
12.19000, 63.0
12.26000, 70.0
12.33000, 67.0
12.40000, 66.0
12.47000, 54.0
12.54000, 46.0
12.61000, 54.0
12.68000, 58.0
12.75000, 81.0
12.82000, 76.0
12.89000, 85.0
12.96000, 55.0
13.03000, 59.0
13.10000, 55.0
13.17000, 52.0
13.24000, 47.0
13.31000, 46.0
13.38000, 59.0
13.45000, 50.0
13.52000, 41.0
13.59000, 42.0
13.66000, 48.0
13.73000, 33.0
13.80000, 59.0
13.87000, 42.0
13.94000, 28.0
14.01000, 38.0
14.08000, 44.0
14.15000, 41.0
14.22000, 42.0
14.29000, 30.0
14.36000, 35.0
14.43000, 31.0
14.50000, 31.0
14.57000, 41.0
14.64000, 37.0
14.71000, 31.0
14.78000, 24.0
14.85000, 25.0
14.92000, 26.0
14.99000, 26.0
15.06000, 17.0
15.13000, 32.0
15.20000, 23.0
15.27000, 25.0
15.34000, 29.0
15.41000, 23.0
15.48000, 35.0
15.55000, 20.0
15.62000, 16.0
15.69000, 24.0
15.76000, 20.0
15.83000, 22.0
15.90000, 27.0
15.97000, 20.0
16.04000, 11.0
16.11000, 20.0
16.18000, 27.0
16.25000, 22.0
16.32000, 14.0
16.39000, 10.0
16.46000, 24.0
16.53000, 10.0
16.60000, 12.0
16.67000, 18.0
16.74000, 9.0
16.81000, 15.0
16.88000, 11.0
16.95000, 13.0
17.02000, 6.0
17.09000, 13.0
17.16000, 17.0
17.23000, 11.0
17.30000, 14.0
17.37000, 6.0
17.44000, 10.0
17.51000, 6.0
17.58000, 11.0
17.65000, 8.0
17.72000, 13.0
17.79000, 8.0
17.86000, 3.0
17.93000, 7.0
18.00000, 6.0
18.07000, 3.0
18.14000, 9.0
18.21000, 8.0
18.28000, 4.0
18.35000, 3.0
18.42000, 7.0
18.49000, 4.0
18.56000, 7.0
18.63000, 3.0
18.70000, 1.0
18.77000, 5.0
18.84000, 0.0
18.91000, 5.0
18.98000, 2.0
19.05000, 3.0
19.12000, 3.0
19.19000, 0.0
19.26000, 0.0
19.33000, 1.0
19.40000, 1.0
19.47000, 1.0
19.54000, 0.0
19.61000, 0.0
19.68000, 0.0
19.75000, 1.0
19.82000, 1.0
19.89000, 1.0
19.96000, 0.0
20.03000, 1.0
20.10000, 1.0
20.17000, 0.0
20.24000, 1.0
20.27000, 0.0
#ENDOFDATA   :