File: SEM/CL20-D 100 Spectrum 2.txt
#FORMAT      : EMSA/MAS Spectral Data File
#VERSION     : 1.0
#TITLE       : Spectrum 2
#DATE        : 20-DEC-2021
#TIME        : 12:55
#OWNER       :
#NPOINTS     : 2048.0
#NCOLUMNS    : 1.0
#XUNITS      : keV
#YUNITS      : counts
#DATATYPE    : XY
#XPERCHAN    : 0.01
#OFFSET      : -0.2
#SIGNALTYPE  : EDS
#CHOFFSET    : 20.0
#LIVETIME    : 40.0
#REALTIME    : 43.4763
#BEAMKV      : 20.0
#MAGCAM      : 500.0
#XTILTSTGE   : 0.0
#AZIMANGLE   : 0.0
#ELEVANGLE   : 35.0
#XPOSITION mm: 3.4877
#YPOSITION mm: 7.7600
#ZPOSITION mm: 6.0000
##OXINSTPT   : 4
##OXINSTSTROB: 43.53
##OXINSTNDET : 1
##OXINSTELEMS: 6,25,26,14,24,8,23,16
##OXINSTLABEL: 6, 0.277, C
##OXINSTLABEL: 25, 5.899, Mn
##OXINSTLABEL: 25, 6.490, Mn
##OXINSTLABEL: 25, 0.636, Mn
##OXINSTLABEL: 25, 0.556, Mn
##OXINSTLABEL: 26, 6.404, Fe
##OXINSTLABEL: 26, 7.058, Fe
##OXINSTLABEL: 26, 0.703, Fe
##OXINSTLABEL: 26, 0.615, Fe
##OXINSTLABEL: 14, 1.740, Si
##OXINSTLABEL: 24, 5.415, Cr
##OXINSTLABEL: 24, 5.947, Cr
##OXINSTLABEL: 24, 0.573, Cr
##OXINSTLABEL: 24, 0.500, Cr
##OXINSTLABEL: 8, 0.525, O
##OXINSTLABEL: 23, 4.952, V
##OXINSTLABEL: 23, 5.427, V
##OXINSTLABEL: 23, 0.511, V
##OXINSTLABEL: 23, 0.446, V
##OXINSTLABEL: 16, 2.308, S
##OXINSTLABEL: 16, 2.464, S
#SPECTRUM    : Spectral Data Starts Here
-0.20000, 0.0
-0.13000, 0.0
-0.06000, 3.0
0.01000, 1337.0
0.08000, 354.0
0.15000, 216.0
0.22000, 382.0
0.29000, 1376.0
0.36000, 309.0
0.43000, 510.0
0.50000, 1204.0
0.57000, 1979.0
0.64000, 5159.0
0.71000, 14605.0
0.78000, 734.0
0.85000, 284.0
0.92000, 322.0
0.99000, 350.0
1.06000, 397.0
1.13000, 379.0
1.20000, 465.0
1.27000, 433.0
1.34000, 484.0
1.41000, 516.0
1.48000, 518.0
1.55000, 492.0
1.62000, 522.0
1.69000, 612.0
1.76000, 688.0
1.83000, 561.0
1.90000, 497.0
1.97000, 544.0
2.04000, 505.0
2.11000, 517.0
2.18000, 510.0
2.25000, 593.0
2.32000, 662.0
2.39000, 583.0
2.46000, 557.0
2.53000, 511.0
2.60000, 549.0
2.67000, 554.0
2.74000, 498.0
2.81000, 521.0
2.88000, 521.0
2.95000, 479.0
3.02000, 482.0
3.09000, 490.0
3.16000, 461.0
3.23000, 505.0
3.30000, 469.0
3.37000, 465.0
3.44000, 456.0
3.51000, 461.0
3.58000, 465.0
3.65000, 463.0
3.72000, 433.0
3.79000, 418.0
3.86000, 388.0
3.93000, 370.0
4.00000, 413.0
4.07000, 378.0
4.14000, 376.0
4.21000, 385.0
4.28000, 389.0
4.35000, 382.0
4.42000, 380.0
4.49000, 340.0
4.56000, 393.0
4.63000, 410.0
4.70000, 399.0
4.77000, 354.0
4.84000, 320.0
4.91000, 377.0
4.98000, 359.0
5.05000, 336.0
5.12000, 323.0
5.19000, 333.0
5.26000, 298.0
5.33000, 331.0
5.40000, 379.0
5.47000, 334.0
5.54000, 293.0
5.61000, 305.0
5.68000, 279.0
5.75000, 278.0
5.82000, 404.0
5.89000, 656.0
5.96000, 485.0
6.03000, 280.0
6.10000, 245.0
6.17000, 314.0
6.24000, 704.0
6.31000, 6516.0
6.38000, 21419.0
6.45000, 15209.0
6.52000, 2674.0
6.59000, 371.0
6.66000, 259.0
6.73000, 257.0
6.80000, 263.0
6.87000, 309.0
6.94000, 739.0
7.01000, 2402.0
7.08000, 2824.0
7.15000, 1030.0
7.22000, 212.0
7.29000, 139.0
7.36000, 138.0
7.43000, 157.0
7.50000, 155.0
7.57000, 141.0
7.64000, 119.0
7.71000, 142.0
7.78000, 135.0
7.85000, 135.0
7.92000, 145.0
7.99000, 149.0
8.06000, 157.0
8.13000, 144.0
8.20000, 133.0
8.27000, 127.0
8.34000, 145.0
8.41000, 112.0
8.48000, 144.0
8.55000, 102.0
8.62000, 134.0
8.69000, 107.0
8.76000, 126.0
8.83000, 132.0
8.90000, 123.0
8.97000, 121.0
9.04000, 122.0
9.11000, 131.0
9.18000, 110.0
9.25000, 93.0
9.32000, 128.0
9.39000, 111.0
9.46000, 85.0
9.53000, 104.0
9.60000, 98.0
9.67000, 103.0
9.74000, 114.0
9.81000, 92.0
9.88000, 102.0
9.95000, 95.0
10.02000, 79.0
10.09000, 106.0
10.16000, 90.0
10.23000, 106.0
10.30000, 80.0
10.37000, 92.0
10.44000, 96.0
10.51000, 74.0
10.58000, 89.0
10.65000, 87.0
10.72000, 74.0
10.79000, 92.0
10.86000, 77.0
10.93000, 85.0
11.00000, 85.0
11.07000, 71.0
11.14000, 65.0
11.21000, 95.0
11.28000, 79.0
11.35000, 88.0
11.42000, 83.0
11.49000, 68.0
11.56000, 66.0
11.63000, 70.0
11.70000, 65.0
11.77000, 61.0
11.84000, 59.0
11.91000, 60.0
11.98000, 68.0
12.05000, 69.0
12.12000, 61.0
12.19000, 71.0
12.26000, 55.0
12.33000, 56.0
12.40000, 66.0
12.47000, 65.0
12.54000, 69.0
12.61000, 50.0
12.68000, 58.0
12.75000, 73.0
12.82000, 95.0
12.89000, 78.0
12.96000, 55.0
13.03000, 57.0
13.10000, 44.0
13.17000, 47.0
13.24000, 40.0
13.31000, 52.0
13.38000, 53.0
13.45000, 63.0
13.52000, 62.0
13.59000, 49.0
13.66000, 46.0
13.73000, 44.0
13.80000, 48.0
13.87000, 33.0
13.94000, 48.0
14.01000, 42.0
14.08000, 39.0
14.15000, 37.0
14.22000, 34.0
14.29000, 38.0
14.36000, 30.0
14.43000, 24.0
14.50000, 27.0
14.57000, 30.0
14.64000, 32.0
14.71000, 19.0
14.78000, 30.0
14.85000, 27.0
14.92000, 29.0
14.99000, 42.0
15.06000, 21.0
15.13000, 28.0
15.20000, 24.0
15.27000, 37.0
15.34000, 21.0
15.41000, 19.0
15.48000, 23.0
15.55000, 28.0
15.62000, 28.0
15.69000, 22.0
15.76000, 22.0
15.83000, 19.0
15.90000, 13.0
15.97000, 15.0
16.04000, 18.0
16.11000, 17.0
16.18000, 18.0
16.25000, 14.0
16.32000, 16.0
16.39000, 11.0
16.46000, 16.0
16.53000, 16.0
16.60000, 11.0
16.67000, 15.0
16.74000, 11.0
16.81000, 10.0
16.88000, 12.0
16.95000, 13.0
17.02000, 12.0
17.09000, 14.0
17.16000, 9.0
17.23000, 10.0
17.30000, 9.0
17.37000, 11.0
17.44000, 11.0
17.51000, 6.0
17.58000, 10.0
17.65000, 12.0
17.72000, 8.0
17.79000, 5.0
17.86000, 6.0
17.93000, 4.0
18.00000, 9.0
18.07000, 5.0
18.14000, 2.0
18.21000, 3.0
18.28000, 5.0
18.35000, 7.0
18.42000, 5.0
18.49000, 4.0
18.56000, 4.0
18.63000, 8.0
18.70000, 4.0
18.77000, 5.0
18.84000, 3.0
18.91000, 6.0
18.98000, 5.0
19.05000, 3.0
19.12000, 3.0
19.19000, 1.0
19.26000, 1.0
19.33000, 4.0
19.40000, 3.0
19.47000, 1.0
19.54000, 5.0
19.61000, 0.0
19.68000, 2.0
19.75000, 0.0
19.82000, 1.0
19.89000, 1.0
19.96000, 0.0
20.03000, 0.0
20.10000, 0.0
20.17000, 0.0
20.24000, 0.0
20.27000, 0.0
#ENDOFDATA   :