File: SEM/CL20_B 000 Spectrum 1.txt
#FORMAT      : EMSA/MAS Spectral Data File
#VERSION     : 1.0
#TITLE       : Spectrum 1
#DATE        : 20-DEC-2021
#TIME        : 13:48
#OWNER       :
#NPOINTS     : 2048.0
#NCOLUMNS    : 1.0
#XUNITS      : keV
#YUNITS      : counts
#DATATYPE    : XY
#XPERCHAN    : 0.01
#OFFSET      : -0.2
#SIGNALTYPE  : EDS
#CHOFFSET    : 20.0
#LIVETIME    : 40.0
#REALTIME    : 42.8623
#BEAMKV      : 20.0
#MAGCAM      : 500.0
#XTILTSTGE   : 0.0
#AZIMANGLE   : 0.0
#ELEVANGLE   : 35.0
#XPOSITION mm: -0.2433
#YPOSITION mm: -11.5485
#ZPOSITION mm: 10.0000
##OXINSTPT   : 4
##OXINSTSTROB: 43.58
##OXINSTNDET : 1
##OXINSTELEMS: 6,26,25,14,24,23,29,16
##OXINSTLABEL: 6, 0.277, C
##OXINSTLABEL: 26, 6.404, Fe
##OXINSTLABEL: 26, 7.058, Fe
##OXINSTLABEL: 26, 0.703, Fe
##OXINSTLABEL: 26, 0.615, Fe
##OXINSTLABEL: 25, 5.899, Mn
##OXINSTLABEL: 25, 6.490, Mn
##OXINSTLABEL: 25, 0.636, Mn
##OXINSTLABEL: 25, 0.556, Mn
##OXINSTLABEL: 14, 1.740, Si
##OXINSTLABEL: 24, 5.415, Cr
##OXINSTLABEL: 24, 5.947, Cr
##OXINSTLABEL: 24, 0.573, Cr
##OXINSTLABEL: 24, 0.500, Cr
##OXINSTLABEL: 23, 4.952, V
##OXINSTLABEL: 23, 5.427, V
##OXINSTLABEL: 23, 0.511, V
##OXINSTLABEL: 23, 0.446, V
##OXINSTLABEL: 29, 8.048, Cu
##OXINSTLABEL: 29, 8.905, Cu
##OXINSTLABEL: 29, 0.930, Cu
##OXINSTLABEL: 29, 0.832, Cu
##OXINSTLABEL: 29, 0.811, Cu
##OXINSTLABEL: 16, 2.308, S
##OXINSTLABEL: 16, 2.464, S
#SPECTRUM    : Spectral Data Starts Here
-0.20000, 0.0
-0.13000, 0.0
-0.06000, 1.0
0.01000, 1422.0
0.08000, 298.0
0.15000, 124.0
0.22000, 243.0
0.29000, 850.0
0.36000, 187.0
0.43000, 296.0
0.50000, 714.0
0.57000, 1380.0
0.64000, 3486.0
0.71000, 9858.0
0.78000, 504.0
0.85000, 199.0
0.92000, 232.0
0.99000, 215.0
1.06000, 240.0
1.13000, 241.0
1.20000, 260.0
1.27000, 307.0
1.34000, 302.0
1.41000, 327.0
1.48000, 347.0
1.55000, 318.0
1.62000, 355.0
1.69000, 398.0
1.76000, 486.0
1.83000, 363.0
1.90000, 367.0
1.97000, 389.0
2.04000, 372.0
2.11000, 372.0
2.18000, 320.0
2.25000, 414.0
2.32000, 440.0
2.39000, 394.0
2.46000, 402.0
2.53000, 377.0
2.60000, 401.0
2.67000, 391.0
2.74000, 354.0
2.81000, 393.0
2.88000, 361.0
2.95000, 397.0
3.02000, 364.0
3.09000, 353.0
3.16000, 372.0
3.23000, 372.0
3.30000, 382.0
3.37000, 348.0
3.44000, 381.0
3.51000, 341.0
3.58000, 344.0
3.65000, 374.0
3.72000, 366.0
3.79000, 338.0
3.86000, 316.0
3.93000, 301.0
4.00000, 321.0
4.07000, 335.0
4.14000, 313.0
4.21000, 282.0
4.28000, 311.0
4.35000, 327.0
4.42000, 284.0
4.49000, 296.0
4.56000, 331.0
4.63000, 365.0
4.70000, 309.0
4.77000, 264.0
4.84000, 288.0
4.91000, 322.0
4.98000, 302.0
5.05000, 264.0
5.12000, 260.0
5.19000, 273.0
5.26000, 281.0
5.33000, 265.0
5.40000, 346.0
5.47000, 305.0
5.54000, 235.0
5.61000, 240.0
5.68000, 241.0
5.75000, 249.0
5.82000, 340.0
5.89000, 574.0
5.96000, 407.0
6.03000, 253.0
6.10000, 232.0
6.17000, 270.0
6.24000, 608.0
6.31000, 5542.0
6.38000, 18242.0
6.45000, 13052.0
6.52000, 2289.0
6.59000, 298.0
6.66000, 241.0
6.73000, 211.0
6.80000, 210.0
6.87000, 268.0
6.94000, 639.0
7.01000, 2158.0
7.08000, 2509.0
7.15000, 798.0
7.22000, 161.0
7.29000, 101.0
7.36000, 115.0
7.43000, 123.0
7.50000, 116.0
7.57000, 93.0
7.64000, 103.0
7.71000, 108.0
7.78000, 97.0
7.85000, 98.0
7.92000, 104.0
7.99000, 110.0
8.06000, 130.0
8.13000, 108.0
8.20000, 107.0
8.27000, 103.0
8.34000, 111.0
8.41000, 109.0
8.48000, 109.0
8.55000, 109.0
8.62000, 92.0
8.69000, 96.0
8.76000, 85.0
8.83000, 96.0
8.90000, 101.0
8.97000, 86.0
9.04000, 94.0
9.11000, 86.0
9.18000, 87.0
9.25000, 96.0
9.32000, 90.0
9.39000, 97.0
9.46000, 101.0
9.53000, 93.0
9.60000, 76.0
9.67000, 76.0
9.74000, 78.0
9.81000, 75.0
9.88000, 74.0
9.95000, 68.0
10.02000, 81.0
10.09000, 80.0
10.16000, 93.0
10.23000, 71.0
10.30000, 89.0
10.37000, 64.0
10.44000, 68.0
10.51000, 74.0
10.58000, 74.0
10.65000, 84.0
10.72000, 65.0
10.79000, 66.0
10.86000, 64.0
10.93000, 83.0
11.00000, 69.0
11.07000, 56.0
11.14000, 65.0
11.21000, 54.0
11.28000, 59.0
11.35000, 66.0
11.42000, 63.0
11.49000, 51.0
11.56000, 47.0
11.63000, 52.0
11.70000, 55.0
11.77000, 42.0
11.84000, 51.0
11.91000, 70.0
11.98000, 47.0
12.05000, 69.0
12.12000, 47.0
12.19000, 52.0
12.26000, 46.0
12.33000, 52.0
12.40000, 53.0
12.47000, 43.0
12.54000, 50.0
12.61000, 64.0
12.68000, 47.0
12.75000, 74.0
12.82000, 84.0
12.89000, 62.0
12.96000, 46.0
13.03000, 40.0
13.10000, 38.0
13.17000, 41.0
13.24000, 40.0
13.31000, 33.0
13.38000, 49.0
13.45000, 48.0
13.52000, 50.0
13.59000, 39.0
13.66000, 36.0
13.73000, 35.0
13.80000, 32.0
13.87000, 23.0
13.94000, 25.0
14.01000, 34.0
14.08000, 36.0
14.15000, 30.0
14.22000, 32.0
14.29000, 35.0
14.36000, 23.0
14.43000, 29.0
14.50000, 37.0
14.57000, 13.0
14.64000, 31.0
14.71000, 24.0
14.78000, 29.0
14.85000, 29.0
14.92000, 28.0
14.99000, 18.0
15.06000, 23.0
15.13000, 20.0
15.20000, 20.0
15.27000, 16.0
15.34000, 24.0
15.41000, 23.0
15.48000, 17.0
15.55000, 27.0
15.62000, 20.0
15.69000, 20.0
15.76000, 17.0
15.83000, 16.0
15.90000, 11.0
15.97000, 15.0
16.04000, 16.0
16.11000, 15.0
16.18000, 23.0
16.25000, 26.0
16.32000, 17.0
16.39000, 11.0
16.46000, 11.0
16.53000, 11.0
16.60000, 11.0
16.67000, 8.0
16.74000, 13.0
16.81000, 24.0
16.88000, 9.0
16.95000, 6.0
17.02000, 8.0
17.09000, 6.0
17.16000, 12.0
17.23000, 17.0
17.30000, 9.0
17.37000, 17.0
17.44000, 5.0
17.51000, 9.0
17.58000, 9.0
17.65000, 5.0
17.72000, 7.0
17.79000, 6.0
17.86000, 7.0
17.93000, 5.0
18.00000, 11.0
18.07000, 7.0
18.14000, 9.0
18.21000, 4.0
18.28000, 7.0
18.35000, 8.0
18.42000, 1.0
18.49000, 4.0
18.56000, 6.0
18.63000, 2.0
18.70000, 5.0
18.77000, 5.0
18.84000, 2.0
18.91000, 2.0
18.98000, 6.0
19.05000, 8.0
19.12000, 6.0
19.19000, 1.0
19.26000, 0.0
19.33000, 5.0
19.40000, 4.0
19.47000, 2.0
19.54000, 2.0
19.61000, 1.0
19.68000, 1.0
19.75000, 0.0
19.82000, 1.0
19.89000, 2.0
19.96000, 0.0
20.03000, 0.0
20.10000, 0.0
20.17000, 0.0
20.24000, 0.0
20.27000, 0.0
#ENDOFDATA   :